27/10/2021	12:58
Experiment Type:	Sizing
Pseudo Cross Correlation
Scattering angle:	15.0
Duration (s):	60
Wavelength (nm):	660.0
Refractive index:	1.330
Viscosity (mPas):	0.969
Temperature (K):	294.5
Laser intensity (mW):	0.130944
Average Count rate  A (kHz):	251.5
Average Count rate  B (kHz):	235.9
Intercept:	1.0000
Cumulant 1st	-Inf
Cumulant 2nd	-Inf	NaN
Cumulant 3rd	-Inf	NaN

Lag time (s)         g2-1
1.250000E-8	0.035739
2.500000E-8	0.022149
3.750000E-8	0.035358
5.000000E-8	0.032168
6.250000E-8	0.035447
7.500000E-8	0.033808
8.750000E-8	0.032909
1.000000E-7	0.022867
1.125000E-7	0.035560
1.250000E-7	0.030820
1.375000E-7	0.029494
1.500000E-7	0.025990
1.625000E-7	0.039177
1.750000E-7	0.038548
1.875000E-7	0.034122
2.000000E-7	0.033471
2.125000E-7	0.037480
2.375000E-7	0.030966
2.625000E-7	0.034145
2.875000E-7	0.033437
3.125000E-7	0.038536
3.375000E-7	0.035178
3.625000E-7	0.030258
3.875000E-7	0.034077
4.125000E-7	0.034133
4.625000E-7	0.030039
5.125000E-7	0.028562
5.625000E-7	0.034442
6.125000E-7	0.030253
6.625000E-7	0.035841
7.125000E-7	0.034206
7.625000E-7	0.034661
8.125000E-7	0.030915
9.125000E-7	0.033201
1.012500E-6	0.032218
1.112500E-6	0.032038
1.212500E-6	0.032780
1.312500E-6	0.035445
1.412500E-6	0.033900
1.512500E-6	0.033549
1.612500E-6	0.034567
1.812500E-6	0.032100
2.012500E-6	0.034802
2.212500E-6	0.035104
2.412500E-6	0.032850
2.612500E-6	0.033006
2.812500E-6	0.031954
3.012500E-6	0.034702
3.212500E-6	0.033664
3.612500E-6	0.034257
4.012500E-6	0.034513
4.412500E-6	0.031659
4.812500E-6	0.033134
5.212500E-6	0.031759
5.612500E-6	0.032852
6.012500E-6	0.033306
6.412500E-6	0.032813
7.212500E-6	0.033080
8.012500E-6	0.033556
8.812500E-6	0.033011
9.612500E-6	0.032946
1.041250E-5	0.032660
1.121250E-5	0.032978
1.201250E-5	0.032709
1.281250E-5	0.032311
1.441250E-5	0.032611
1.601250E-5	0.032686
1.761250E-5	0.032751
1.921250E-5	0.032857
2.081250E-5	0.032316
2.241250E-5	0.032460
2.401250E-5	0.032299
2.561250E-5	0.032678
2.881250E-5	0.032348
3.201250E-5	0.032565
3.521250E-5	0.032664
3.841250E-5	0.032491
4.161250E-5	0.032434
4.481250E-5	0.032663
4.801250E-5	0.032524
5.121250E-5	0.032223
5.761250E-5	0.032780
6.401250E-5	0.032845
7.041250E-5	0.032556
7.681250E-5	0.032588
8.321250E-5	0.032494
8.961250E-5	0.032431
9.601250E-5	0.032857
0.000102	0.032696
0.000115	0.032790
0.000128	0.032526
0.000141	0.032605
0.000154	0.032656
0.000166	0.032543
0.000179	0.032761
0.000192	0.032811
0.000205	0.032632
0.000230	0.032684
0.000256	0.032601
0.000282	0.032671
0.000307	0.032452
0.000333	0.032595
0.000358	0.032560
0.000384	0.032418
0.000410	0.032372
0.000461	0.032502
0.000512	0.032458
0.000563	0.032528
0.000614	0.032388
0.000666	0.032340
0.000717	0.032437
0.000768	0.032410
0.000819	0.032487
0.000922	0.032335
0.001024	0.032406
0.001126	0.032259
0.001229	0.032322
0.001331	0.032210
0.001434	0.032161
0.001536	0.032208
0.001638	0.032178
0.001843	0.032119
0.002048	0.032026
0.002253	0.032030
0.002458	0.031962
0.002662	0.031862
0.002867	0.031849
0.003072	0.031719
0.003277	0.031720
0.003686	0.031630
0.004096	0.031525
0.004506	0.031408
0.004915	0.031256
0.005325	0.031224
0.005734	0.031074
0.006144	0.031003
0.006554	0.030856
0.007373	0.030698
0.008192	0.030464
0.009011	0.030244
0.009830	0.030025
0.010650	0.029867
0.011469	0.029663
0.012288	0.029499
0.013107	0.029290
0.014746	0.028937
0.016384	0.028576
0.018022	0.028235
0.019661	0.027928
0.021299	0.027581
0.022938	0.027249
0.024576	0.026891
0.026214	0.026572
0.029491	0.025895
0.032768	0.025211
0.036045	0.024554
0.039322	0.023920
0.042598	0.023236
0.045875	0.022643
0.049152	0.022094
0.052429	0.021554
0.058982	0.020536
0.065536	0.019563
0.072090	0.018646
0.078643	0.017782
0.085197	0.017023
0.091750	0.016288
0.098304	0.015540
0.104858	0.014867
0.117965	0.013477
0.131072	0.012241
0.144179	0.011093
0.157286	0.010077
0.170394	0.009199
0.183501	0.008363
0.196608	0.007500
0.209715	0.006702
0.235930	0.005531
0.262144	0.004717
0.288358	0.004108
0.314573	0.003861
0.340787	0.003815
0.367002	0.003395
0.393216	0.002837
0.419430	0.002571
0.471859	0.002487
0.524288	0.003000
0.576717	0.002813
0.629146	0.002936
0.681574	0.002553
0.734003	0.002152
0.786432	0.002805
0.838861	0.003495
0.943718	0.003992
1.048576	0.004230
1.153434	0.004488
1.258291	0.004092
1.363149	0.003324
1.468006	0.002962
1.572864	0.002219
1.677722	0.001688
1.887437	0.002307
2.097152	0.003425
2.306867	0.001097
2.516582	0.002153
2.726298	0.003045
2.936013	0.002913
3.145728	0.002397
3.355443	0.003403
3.774873	0.002651
4.194304	0.003478
4.613734	0.002614
5.033165	0.003566
5.452595	0.001112
5.872025	0.002508
6.291456	0.002611
6.710886	0.004133
7.549747	0.005234
8.388608	0.007160
9.227468	0.005402
10.066330	0.006126
10.905190	0.008308
11.744051	0.011092
12.582912	0.009779
13.421773	0.008679
15.099494	0.012493
16.777216	0.015220
18.454937	0.015305
20.132660	0.016976
21.810381	0.017828
23.488102	0.018460
25.165825	0.023205
26.843546	0.025150
30.198988	0.033107
33.554432	0.039964
36.909874	0.049372
40.265320	0.061224
43.620762	0.056846
46.976204	0.055925
50.331650	0.063180

Count Rate History (KHz)  CR CHA / CR CHB
0.000000	255.928040	239.295959
0.052429	253.734589	236.186981
0.104858	255.565643	233.821869
0.157286	252.246857	235.271454
0.209715	253.028870	236.892700
0.262144	257.625580	238.571167
0.314573	253.601074	240.402222
0.367002	254.707336	240.516663
0.419430	252.513885	239.772797
0.471859	254.325867	239.295959
0.524288	253.925323	237.655640
0.576717	252.037048	237.522125
0.629146	246.944427	237.140656
0.681574	249.462128	230.312347
0.734003	250.949860	236.148834
0.786432	250.911713	234.222412
0.838861	246.849060	230.293274
0.891290	244.827271	229.206085
0.943718	246.582031	231.628418
0.996147	245.285034	231.933594
1.048576	245.532990	229.358673
1.101005	243.110657	223.903656
1.153434	234.184265	221.595764
1.205862	236.225128	222.473145
1.258291	237.159729	225.334167
1.310720	238.399506	217.514038
1.363149	230.216980	216.789246
1.415578	231.895447	220.241547
1.468006	231.323242	219.974518
1.520435	232.563019	217.685699
1.572864	235.748291	218.639374
1.625293	239.791870	222.682953
1.677722	234.680176	221.633911
1.730150	239.620209	227.813721
1.782579	239.257812	221.233368
1.835008	235.614777	222.091675
1.887437	242.500305	228.481293
1.939866	243.663788	230.579376
1.992294	245.094299	229.549408
2.044723	250.663757	235.500336
2.097152	252.017975	233.554840
2.149581	246.391296	237.083435
2.202010	248.374939	235.652924
2.254438	246.810913	233.440399
2.306867	257.396698	237.960815
2.359296	260.009766	240.325928
2.411725	255.737305	240.955353
2.464154	254.364014	235.805511
2.516582	255.718231	237.026215
2.569011	254.096985	237.522125
2.621440	253.314972	239.601135
2.673869	250.988007	238.094330
2.726298	251.960754	240.917206
2.778726	253.143311	237.255096
2.831155	257.034302	236.301422
2.883584	252.494812	240.764618
2.936013	252.342224	237.884521
2.988442	254.745483	240.097046
3.040870	252.723694	238.456726
3.093299	256.690979	236.396790
3.145728	254.497528	237.560272
3.198157	255.908966	239.677429
3.250586	249.786377	235.843658
3.303014	251.789093	232.849121
3.355443	246.105194	230.960846
3.407872	254.325867	237.216949
3.460301	258.197784	241.317749
3.512730	253.849030	242.023468
3.565158	253.181458	233.592987
3.617587	251.865387	234.165192
3.670016	252.609253	234.279633
3.722445	254.173279	234.375000
3.774874	247.859955	232.124329
3.827302	248.813629	230.236053
3.879731	241.775513	230.197906
3.932160	249.118805	226.402283
3.984589	237.140656	225.944519
4.037018	241.336823	221.195221
4.089446	243.721008	228.176117
4.141875	236.644745	214.958191
4.194304	232.105255	213.565826
4.246733	232.791901	219.116211
4.299162	236.625671	223.331451
4.351590	230.960846	218.925476
4.404019	229.072571	216.941833
4.456448	241.413116	225.429535
4.508877	240.402222	229.244232
4.561306	243.225098	227.050781
4.613734	243.511200	224.533081
4.666163	232.620239	221.691132
4.718592	230.445862	216.255188
4.771021	230.598450	221.405029
4.823450	237.197876	221.977234
4.875878	238.208771	224.075317
4.928307	235.176086	218.868256
4.980736	235.290527	222.129822
5.033165	240.573883	227.317810
5.085594	245.227814	228.118896
5.138022	245.571136	231.952667
5.190451	244.178772	233.230591
5.242880	247.039795	231.952667
5.295309	246.658325	233.898163
5.347738	251.560211	234.413147
5.400166	253.810883	237.941742
5.452595	246.868134	237.045288
5.505024	252.361298	234.775543
5.557453	241.718292	228.233337
5.609882	240.306854	227.718353
5.662310	236.282349	225.887299
5.714739	238.513947	225.429535
5.767168	239.925385	224.514008
5.819597	243.911743	226.421356
5.872026	246.791840	234.355927
5.924454	242.652893	224.628448
5.976883	235.576630	222.568512
6.029312	234.909058	219.230652
6.081741	236.816406	222.892761
6.134170	240.554810	223.503113
6.186598	240.478516	221.462250
6.239027	234.222412	216.579437
6.291456	235.061646	219.173431
6.343885	234.928131	215.225220
6.396314	236.682892	218.181610
6.448742	235.004425	218.849182
6.501171	242.347717	225.791931
6.553600	243.682861	226.669312
6.606029	240.917206	222.644806
6.658458	240.154266	225.791931
6.710886	242.424011	224.761963
6.763315	237.655640	222.721100
6.815744	243.892670	222.778320
6.868173	243.968964	227.088928
6.920602	240.840912	230.770111
6.973030	244.445801	227.794647
7.025459	246.315002	229.225159
7.077888	241.394043	225.830078
7.130317	245.399475	229.949951
7.182746	246.639252	228.042603
7.235174	239.467621	226.325989
7.287603	249.919891	230.560303
7.340032	245.113373	232.620239
7.392461	247.573853	234.394073
7.444890	241.909027	231.647491
7.497318	238.151550	218.849182
7.549747	239.582062	223.560333
7.602176	235.214233	216.522217
7.654605	228.633881	216.293335
7.707034	234.947205	219.688416
7.759462	245.494843	228.347778
7.811891	246.849060	231.513977
7.864320	247.020721	232.124329
7.916749	251.731873	235.710144
7.969178	253.887177	238.227844
8.021606	250.549316	238.437653
8.074035	249.366760	241.317749
8.126464	260.829926	240.917206
8.178893	254.020691	240.249634
8.231322	255.031586	241.203308
8.283750	254.287720	240.249634
8.336179	244.293213	228.118896
8.388608	234.146118	225.296021
8.441037	239.620209	230.197906
8.493466	246.505737	233.650208
8.545894	244.216919	228.290558
8.598323	242.080688	224.285126
8.650752	233.802795	218.048096
8.703181	230.731964	219.192505
8.755610	233.345032	215.339661
8.808038	235.176086	216.102600
8.860467	236.434937	220.870972
8.912896	234.985352	219.268799
8.965325	229.167938	218.963623
9.017754	234.031677	216.426849
9.070182	236.263275	226.345062
9.122611	241.622925	223.598480
9.175040	245.838165	228.214264
9.227469	246.276855	230.140686
9.279898	245.628357	229.396820
9.332326	245.037079	229.110718
9.384755	238.094330	219.917297
9.437184	226.840973	214.977264
9.489613	231.990814	216.655731
9.542042	240.783691	223.140717
9.594470	245.285034	231.838226
9.646899	237.731934	224.456787
9.699328	234.832764	219.745636
9.751757	238.723755	220.470428
9.804186	242.156982	223.827362
9.856614	236.053467	225.772858
9.909043	231.227875	213.565826
9.961472	240.840912	226.078033
10.013901	240.268707	227.603912
10.066330	239.868164	221.080780
10.118758	251.369476	234.661102
10.171187	244.293213	226.116180
10.223616	236.606598	223.464966
10.276045	245.609283	230.007172
10.328474	248.508453	229.034424
10.380902	250.663757	235.462189
10.433331	248.584747	236.282349
10.485760	243.988037	230.369568
10.538189	229.682922	217.819214
10.590618	233.249664	219.783783
10.643046	233.573914	216.846466
10.695475	224.494934	211.734772
10.747904	222.740173	211.429596
10.800333	236.568451	220.203400
10.852762	248.203278	229.244232
10.905190	240.631104	227.966309
10.957619	237.941742	224.666595
11.010048	228.176117	213.966370
11.062477	225.677490	211.944580
11.114906	226.669312	211.200714
11.167334	240.345001	223.979950
11.219763	238.761902	220.146179
11.272192	241.527557	229.969025
11.324621	241.680145	229.454041
11.377050	241.985321	221.881866
11.429478	237.560272	223.522186
11.481907	229.492187	212.821960
11.534336	236.129761	221.595764
11.586765	245.018005	229.778290
11.639194	245.914459	228.404999
11.691622	225.944519	214.042664
11.744051	225.315094	209.274292
11.796480	240.287781	225.486755
11.848909	241.203308	226.078033
11.901338	242.500305	229.930878
11.953766	236.797333	224.304199
12.006195	230.846405	216.217041
12.058624	230.617523	213.832855
12.111053	247.764587	226.783752
12.163482	249.576569	232.181549
12.215910	231.571198	216.350555
12.268339	224.742889	213.260651
12.320768	232.009888	215.473175
12.373197	244.102478	226.383209
12.425626	247.497559	230.522156
12.478054	247.821808	235.462189
12.530483	252.285004	240.249634
12.582912	252.246857	239.105225
12.635341	256.614685	237.464905
12.687770	252.647400	239.086151
12.740198	247.688293	232.143402
12.792627	250.892639	236.225128
12.845056	256.690979	240.898132
12.897485	244.255066	235.271454
12.949914	249.958038	236.682892
13.002342	250.549316	237.178802
13.054771	240.554810	221.042633
13.107200	242.137909	222.949982
13.159629	240.936279	226.974487
13.212058	253.105164	235.843658
13.264486	252.857208	236.110687
13.316915	240.173340	225.124359
13.369344	234.775543	219.993591
13.421773	237.026215	221.748352
13.474202	249.195099	230.484009
13.526630	257.053375	242.462158
13.579059	246.562958	232.563019
13.631488	246.849060	234.260559
13.683917	232.849121	220.413208
13.736346	224.761963	209.922791
13.788774	224.075317	213.375092
13.841203	226.898193	209.541321
13.893632	223.159790	208.396912
13.946061	224.304199	204.811096
13.998490	223.121643	204.181671
14.050918	232.048035	216.445923
14.103347	234.832764	220.756531
14.155776	239.410400	227.146149
14.208205	224.971771	212.268829
14.260634	219.650269	210.018158
14.313062	219.841003	204.238892
14.365491	225.944519	212.535858
14.417920	230.674744	218.238831
14.470349	220.203400	207.862854
14.522778	222.873688	206.928253
14.575206	222.549438	213.317871
14.627635	222.358704	209.674835
14.680064	220.184326	209.331512
14.732493	226.917267	210.704803
14.784922	228.672028	216.197968
14.837350	223.922729	210.418701
14.889779	219.936371	207.538605
14.942208	221.290588	208.187103
14.994637	220.584869	204.753876
15.047066	231.552124	220.012665
15.099494	254.287720	237.846375
15.151923	251.007080	238.780975
15.204352	251.426697	238.113403
15.256781	240.592957	224.704742
15.309210	242.824554	225.772858
15.361638	246.696472	229.167938
15.414067	239.429474	227.775574
15.466496	226.097107	209.369659
15.518925	225.639343	211.505890
15.571354	228.919983	212.745667
15.623782	225.162506	211.315155
15.676211	224.418640	214.672089
15.728640	243.721008	227.680206
15.781069	255.508423	243.968964
15.833498	247.554779	231.513977
15.885926	246.181488	234.184265
15.938355	251.216888	231.952667
15.990784	256.042480	239.601135
16.043213	234.012604	221.748352
16.095642	224.895477	211.200714
16.148070	229.434967	211.315155
16.200499	236.568451	220.699310
16.252928	256.366730	240.039825
16.305357	253.868103	234.184265
16.357786	244.274139	228.672028
16.410214	234.203339	218.696594
16.462643	256.347656	242.729187
16.515072	260.677338	241.222382
16.567501	243.644714	229.587555
16.619930	220.546722	204.429626
16.672358	219.860077	203.208923
16.724787	215.911865	201.282501
16.777216	214.309692	203.475952
16.829645	228.042603	217.609406
16.882074	236.682892	217.723846
16.934502	258.026123	241.813660
16.986931	264.530182	241.794586
17.039360	255.222321	239.372253
17.091789	266.246796	250.015259
17.144218	260.829926	251.121521
17.196646	261.898041	247.859955
17.249075	266.380310	252.761841
17.301504	252.037048	237.655640
17.353933	251.674652	238.113403
17.406362	229.530334	219.078064
17.458790	222.415924	201.721191
17.511219	234.107971	217.189789
17.563648	226.020813	212.459564
17.616077	230.522156	215.358734
17.668506	238.533020	223.636627
17.720934	234.870911	220.241547
17.773363	234.127045	216.617584
17.825792	238.552094	226.306915
17.878221	240.154266	222.167969
17.930650	240.173340	226.039886
17.983078	251.522064	236.396790
18.035507	247.612000	228.710175
18.087936	235.290527	219.058990
18.140365	231.742859	216.960907
18.192794	238.456726	218.811035
18.245222	235.366821	223.274231
18.297651	242.633820	224.628448
18.350080	235.195160	219.802856
18.402509	235.862732	225.353241
18.454938	238.151550	220.870972
18.507366	234.851837	220.336914
18.559795	235.347748	219.993591
18.612224	256.443024	239.830017
18.664653	243.129730	230.846405
18.717082	246.200562	230.960846
18.769510	266.227722	251.903534
18.821939	261.821747	248.546600
18.874368	235.939026	222.187042
18.926797	226.535797	217.304230
18.979226	229.377747	218.048096
19.031654	231.132507	214.996338
19.084083	244.674683	226.860046
19.136512	252.304077	238.914490
19.188941	233.917236	227.794647
19.241370	228.462219	217.094421
19.293798	231.037140	216.979980
19.346227	223.560333	208.606720
19.398656	234.527588	219.287872
19.451085	240.802765	223.350525
19.503514	261.802673	246.276855
19.555942	270.557404	251.712799
19.608371	256.671906	247.402191
19.660800	250.740051	236.797333
19.713229	269.107819	251.312256
19.765658	269.813538	252.304077
19.818086	246.124268	232.295990
19.870515	227.832794	210.571289
19.922944	242.881775	224.838257
19.975373	254.516602	242.633820
20.027802	261.077881	239.429474
20.080230	229.606628	218.162537
20.132659	225.543976	213.203430
20.185088	232.105255	222.301483
20.237517	238.265991	225.582123
20.289946	237.464905	223.026276
20.342374	226.860046	213.966370
20.394803	248.107910	230.007172
20.447232	240.345001	223.407745
20.499661	231.342316	213.756561
20.552090	245.361328	232.734680
20.604518	262.184143	247.821808
20.656947	269.012451	250.854492
20.709376	239.830017	220.527649
20.761805	268.478394	256.156921
20.814234	271.453857	252.914429
20.866662	273.532867	249.404907
20.919091	262.947083	245.571136
20.971520	266.227722	246.982574
21.023949	252.799988	238.628387
21.076378	256.023407	248.050690
21.128806	240.192413	225.486755
21.181235	225.200653	209.312439
21.233664	221.710205	205.364227
21.286093	222.911835	205.574036
21.338522	234.489441	215.988159
21.390950	250.015259	236.339569
21.443379	271.186829	256.061554
21.495808	266.799927	252.685547
21.548237	260.848999	244.312286
21.600666	267.143250	250.244141
21.653094	263.023376	248.260498
21.705523	269.908905	254.726410
21.757952	275.421143	257.244110
21.810381	254.039764	239.200592
21.862810	236.339569	225.296021
21.915238	252.246857	236.968994
21.967667	254.974365	241.622925
22.020096	232.086182	218.315125
22.072525	236.721039	224.666595
22.124954	255.641937	240.631104
22.177382	257.778168	246.162415
22.229811	272.426605	257.511139
22.282240	271.072388	252.609253
22.334669	246.658325	231.800079
22.387098	258.483887	243.072510
22.439526	267.391205	246.849060
22.491955	238.132477	223.846436
22.544384	231.018066	216.903687
22.596813	226.612091	214.061737
22.649242	240.211487	228.691101
22.701670	233.879089	220.260620
22.754099	244.407654	228.672028
22.806528	252.037048	235.424042
22.858957	235.748291	218.086243
22.911386	245.494843	232.505798
22.963814	264.434814	250.816345
23.016243	259.647369	246.829987
23.068672	251.102448	239.582062
23.121101	272.159576	249.977112
23.173530	274.963379	250.740051
23.225958	260.372162	243.740082
23.278387	243.225098	224.189758
23.330816	225.887299	213.146210
23.383245	240.345001	226.936340
23.435674	239.410400	222.396851
23.488102	212.459564	198.860168
23.540531	223.083496	209.369659
23.592960	212.154388	196.437836
23.645389	216.045380	201.435089
23.697818	220.565796	209.674835
23.750246	209.312439	195.121765
23.802675	242.691040	230.960846
23.855104	272.712708	254.611969
23.907533	252.590179	236.949921
23.959962	220.375061	208.625793
24.012390	226.993561	209.617615
24.064819	237.579346	224.361420
24.117248	251.235962	231.990814
24.169677	272.674561	245.475769
24.222106	271.778107	256.309509
24.274534	246.925354	228.958130
24.326963	236.091614	223.274231
24.379392	251.693726	235.252380
24.431821	250.148773	231.094360
24.484250	241.870880	223.999023
24.536678	231.723785	216.884613
24.589107	202.465057	186.023712
24.641536	200.786591	186.500549
24.693965	204.563141	190.963745
24.746394	221.252441	210.037231
24.798822	243.225098	225.219727
24.851251	203.933716	193.061829
24.903680	208.072662	191.650391
24.956109	217.781067	200.176239
25.008538	242.252350	228.500366
25.060966	274.219513	254.077911
25.113395	247.459412	232.067108
25.165824	272.083282	255.966187
25.218253	273.227692	253.410339
25.270682	260.162354	241.794586
25.323110	255.584717	241.813660
25.375539	251.235962	232.467651
25.427968	273.838043	255.889893
25.480397	258.255005	239.238739
25.532826	223.827362	212.516785
25.585254	235.328674	224.647522
25.637683	207.595825	199.813843
25.690112	205.650330	193.862915
25.742541	212.440491	195.636749
25.794970	219.421387	210.037231
25.847398	242.652893	223.407745
25.899827	266.933441	255.851746
25.952256	265.369415	247.135162
26.004685	244.617462	231.952667
26.057114	203.437805	192.832947
26.109542	221.328735	205.211639
26.161971	237.064362	222.129822
26.214400	209.007263	196.056366
26.266829	209.884644	200.443268
26.319258	206.851959	192.241669
26.371686	204.868317	191.230774
26.424115	213.241577	197.563171
26.476544	222.816467	206.203461
26.528973	223.999023	206.375122
26.581402	258.369446	247.364044
26.633830	284.042358	269.126892
26.686259	229.988098	215.110779
26.738688	202.999115	190.238953
26.791117	201.072693	191.631317
26.843546	225.563049	207.710266
26.895974	200.271606	192.070007
26.948403	204.067230	193.271637
27.000832	205.268860	192.775726
27.053261	197.887421	187.053680
27.105690	203.762054	189.285278
27.158118	195.007324	182.380676
27.210547	223.064423	203.437805
27.262976	251.293182	239.620209
27.315405	275.020599	260.257721
27.367834	262.756348	249.805450
27.420262	263.633728	248.737335
27.472691	277.099609	261.249542
27.525120	251.197815	234.680176
27.577549	238.113403	224.494934
27.629978	249.385834	231.857300
27.682406	276.641846	261.154175
27.734835	272.636414	258.102417
27.787264	270.442963	257.053375
27.839693	271.835327	255.413055
27.892122	247.440338	235.748291
27.944550	256.805420	244.216919
27.996979	262.336731	243.072510
28.049408	246.181488	230.693817
28.101837	193.443298	182.971954
28.154266	205.574036	196.800232
28.206694	194.072723	179.901123
28.259123	190.505981	180.892944
28.311552	188.865662	181.446075
28.363981	197.544098	184.726715
28.416410	207.653046	191.001892
28.468838	243.492126	226.783752
28.521267	275.630951	253.582001
28.573696	282.382965	262.184143
28.626125	223.922729	210.285187
28.678554	257.377625	239.715576
28.730982	263.347626	248.126984
28.783411	284.290314	269.126892
28.835840	268.459320	253.086090
28.888269	228.710175	212.249756
28.940698	213.088989	199.146271
28.993126	192.832947	184.612274
29.045555	189.590454	180.034637
29.097984	186.061859	176.925659
29.150413	223.636627	210.475922
29.202842	211.429596	198.535919
29.255270	197.448730	183.925629
29.307699	206.451416	192.375183
29.360128	198.078156	183.048248
29.412557	201.644897	185.832977
29.464986	217.342377	204.524994
29.517414	280.075073	263.652802
29.569843	291.404724	267.162323
29.622272	289.840698	273.208618
29.674701	283.622742	260.734558
29.727130	270.881653	256.786346
29.779558	264.225006	247.287750
29.831987	271.396637	260.620117
29.884416	277.729034	261.478424
29.936845	291.538239	266.933441
29.989274	279.064178	267.620087
30.041702	283.031464	266.361237
30.094131	230.484009	217.647552
30.146560	196.113586	183.811188
30.198989	245.094299	232.048035
30.251418	290.203094	269.222260
30.303846	284.500122	269.756317
30.356275	285.797119	272.560120
30.408704	281.352997	266.342163
30.461133	225.906372	219.669342
30.513562	191.402435	182.437897
30.565990	204.772949	190.963745
30.618419	277.328491	258.903503
30.670848	274.314880	255.966187
30.723277	262.489319	243.549347
30.775706	238.018036	223.217010
30.828134	267.105103	254.154205
30.880563	249.900818	231.857300
30.932992	215.530396	202.217102
30.985421	264.339447	248.832703
31.037850	284.557343	266.990662
31.090278	215.816498	201.473236
31.142707	269.813538	258.216858
31.195136	300.674438	280.189514
31.247565	293.025970	277.061462
31.299994	275.268555	257.625580
31.352422	254.516602	238.857269
31.404851	279.388428	266.094208
31.457280	255.088806	236.625671
31.509709	279.636383	259.513855
31.562138	294.246674	281.696320
31.614566	241.527557	225.811005
31.666995	209.407806	194.625854
31.719424	244.598389	229.949951
31.771853	258.808136	243.682861
31.824282	246.486664	226.306915
31.876710	194.091797	180.740356
31.929139	190.143585	175.495148
31.981568	194.435120	179.405212
32.033997	208.854675	196.208954
32.086426	186.138153	175.323486
32.138854	193.901062	180.511475
32.191283	222.606659	214.672089
32.243712	197.353363	184.249878
32.296141	206.623077	197.544098
32.348570	267.601013	250.225067
32.400998	301.342010	276.279449
32.453427	291.099548	272.693634
32.505856	254.192352	239.143372
32.558285	263.061523	248.889923
32.610714	244.483948	229.129791
32.663142	190.563202	176.830292
32.715571	195.789337	185.890198
32.768000	205.135345	188.865662
32.820429	247.135162	230.255127
32.872858	277.671814	262.432098
32.925286	293.025970	275.115967
32.977715	236.740112	224.685669
33.030144	184.249878	175.685883
33.082573	195.693970	182.285309
33.135002	214.977264	203.475952
33.187430	246.734619	228.805542
33.239859	224.552155	213.527679
33.292288	235.843658	219.249725
33.344717	295.486450	272.712708
33.397146	293.960571	274.238586
33.449574	279.445648	264.930725
33.502003	243.854523	227.565765
33.554432	194.473267	186.042786
33.606861	184.040070	173.835754
33.659290	202.598572	192.298889
33.711718	217.056274	203.876495
33.764147	228.843689	215.206146
33.816576	238.380432	224.609375
33.869005	213.546753	202.713013
33.921434	201.225281	190.486908
33.973862	190.162659	175.857544
34.026291	203.590393	189.094543
34.078720	232.086182	218.048096
34.131149	286.254883	276.260376
34.183578	284.976959	269.565582
34.236006	294.971466	279.407501
34.288435	292.015076	268.764496
34.340864	296.840668	275.669098
34.393293	272.789001	258.197784
34.445722	275.840759	261.726379
34.498150	252.075195	237.121582
34.550579	267.505646	250.473022
34.603008	269.603729	247.554779
34.655437	300.178528	279.083252
34.707866	295.372009	278.892517
34.760294	282.821655	265.274048
34.812723	219.993591	210.247040
34.865152	205.955505	195.331573
34.917581	252.513885	227.928162
34.970010	238.437653	221.786499
35.022438	288.867950	273.628235
35.074867	299.606323	281.696320
35.127296	295.925140	280.857086
35.179725	300.655365	277.233124
35.232154	281.181335	263.919830
35.284582	303.764343	282.897949
35.337011	289.878845	274.410248
35.389440	268.840790	249.538422
35.441869	293.254852	279.560089
35.494298	283.470154	265.426636
35.546726	201.721191	186.920166
35.599155	189.342499	173.530579
35.651584	204.944611	192.432404
35.704013	218.811035	203.170776
35.756442	192.146301	177.650452
35.808870	220.184326	206.317902
35.861299	206.794739	196.018219
35.913728	216.045380	201.129913
35.966157	231.380463	216.770172
36.018586	194.187164	183.506012
36.071014	208.072662	195.293427
36.123443	286.808014	270.729065
36.175872	297.336578	279.655457
36.228301	263.404846	248.165131
36.280730	226.669312	214.347839
36.333158	203.094482	186.862946
36.385587	206.699371	190.429687
36.438016	226.840973	214.977264
36.490445	181.598663	174.980164
36.542874	198.459625	184.936523
36.595302	211.887360	200.157166
36.647731	294.265747	271.816254
36.700160	214.023590	201.511383
36.752589	215.320587	204.372406
36.805018	276.851654	262.165070
36.857446	251.026154	231.571198
36.909875	208.301544	193.367004
36.962304	197.410583	182.933807
37.014733	182.075500	174.102783
37.067162	190.353394	175.590515
37.119590	214.576721	201.187134
37.172019	271.263123	251.960754
37.224448	259.742737	241.756439
37.276877	246.391296	233.325958
37.329306	222.568512	205.459595
37.381734	226.802826	209.884644
37.434163	260.047913	243.873596
37.486592	219.020844	206.623077
37.539021	190.334320	184.078217
37.591450	254.821777	239.524841
37.643878	257.987976	244.293213
37.696307	263.309479	244.350433
37.748736	241.889954	228.042603
37.801165	224.189758	206.718445
37.853594	227.775574	209.541321
37.906022	215.778351	203.990936
37.958451	207.939148	199.337006
38.010880	255.393982	237.846375
38.063309	204.296112	194.683075
38.115738	203.247070	193.347931
38.168166	196.132660	181.655884
38.220595	187.244415	173.854828
38.273024	188.064575	175.151825
38.325453	189.094543	179.195404
38.377882	198.764801	187.511444
38.430310	206.108093	198.669434
38.482739	258.579254	241.928101
38.535168	286.426544	266.838074
38.587597	276.336670	264.282227
38.640026	258.560181	242.424011
38.692454	237.464905	223.312378
38.744883	234.012604	218.715668
38.797312	202.770233	195.922852
38.849741	210.990906	198.650360
38.902170	277.328491	259.304047
38.954598	308.609009	297.222137
39.007027	305.519104	288.009644
39.059456	302.085876	283.718109
39.111885	299.205780	284.404755
39.164314	305.309296	286.598206
39.216742	295.772552	281.333923
39.269171	299.530029	283.737183
39.321600	292.930603	269.622803
39.374029	263.843536	245.380402
39.426458	244.178772	227.508545
39.478886	288.772583	272.808075
39.531315	299.282074	278.892517
39.583744	285.224915	270.538330
39.636173	278.129578	267.715454
39.688602	287.551880	269.775391
39.741030	291.957855	275.192261
39.793459	228.099823	212.173462
39.845888	221.233368	204.086304
39.898317	239.505768	227.699280
39.950746	251.903534	241.737366
40.003174	233.364105	219.364166
40.055603	200.538635	187.168121
40.108032	274.276733	259.819031
40.160461	291.957855	278.320312
40.212890	283.908844	264.282227
40.265318	297.508240	281.028748
40.317747	250.740051	237.350464
40.370176	192.661285	178.966522
40.422605	222.644806	206.756592
40.475034	307.807922	287.170410
40.527462	315.475464	295.391083
40.579891	326.671600	303.077698
40.632320	287.380219	263.481140
40.684749	191.001892	181.674957
40.737178	219.726562	207.023621
40.789606	210.933685	199.851990
40.842035	208.911896	195.121765
40.894464	255.603790	239.639282
40.946893	253.658295	237.884521
40.999322	257.453918	241.165161
41.051750	287.361145	274.600983
41.104179	307.674408	286.827087
41.156608	269.985199	256.881714
41.209037	277.023315	259.647369
41.261466	308.704376	289.402008
41.313894	257.625580	242.385864
41.366323	282.955170	262.527466
41.418752	277.328491	261.478424
41.471181	268.135071	253.276825
41.523610	276.660919	261.669159
41.576038	309.734344	286.331177
41.628467	286.560059	268.840790
41.680896	218.410492	202.083588
41.733325	272.979736	258.102417
41.785754	325.374603	306.663513
41.838182	324.001312	303.630829
41.890611	325.565338	301.761627
41.943040	286.064148	266.189575
41.995469	215.778351	204.124451
42.047898	202.484131	193.767548
42.100326	184.116364	173.797607
42.152755	170.345306	162.086487
42.205184	182.666779	169.696808
42.257613	193.176270	181.751251
42.310042	175.228119	169.620514
42.362470	204.563141	194.377899
42.414899	185.985565	177.116394
42.467328	173.912048	163.135529
42.519757	174.083710	165.386200
42.572186	237.598419	222.702026
42.624614	321.083069	300.025940
42.677043	322.704315	302.600861
42.729472	322.914124	304.393768
42.781901	311.279297	295.619965
42.834330	304.527283	289.363861
42.886758	293.922424	273.246765
42.939187	328.235626	310.020447
42.991616	316.200256	292.148590
43.044045	277.576447	258.846283
43.096474	294.628143	282.363892
43.148902	283.660889	264.854431
43.201331	323.734283	303.726196
43.253760	315.513611	300.102234
43.306189	312.232971	294.399261
43.358618	316.543579	298.461914
43.411046	323.600769	302.104950
43.463475	316.677094	305.099487
43.515904	326.671600	304.927826
43.568333	273.418427	255.947113
43.620762	298.118591	287.380219
43.673190	324.230194	309.543610
43.725619	293.674469	273.704529
43.778048	268.287659	252.037048
43.830477	279.216766	259.494781
43.882906	321.941376	296.955109
43.935334	303.497314	287.857056
43.987763	318.870544	304.241180
44.040192	314.235687	290.889740
44.092621	267.276764	248.241425
44.145050	189.418793	176.334381
44.197478	185.146332	172.634125
44.249907	177.974701	168.151855
44.302336	202.121735	185.699463
44.354765	267.028809	247.592926
44.407194	338.687897	311.279297
44.459622	321.502686	305.423737
44.512051	265.522003	251.846313
44.564480	294.609070	276.222229
44.616909	301.780701	283.660889
44.669338	319.194794	301.113129
44.721766	300.922394	280.685425
44.774195	319.900513	297.012329
44.826624	320.816040	304.813385
44.879053	225.772858	213.336945
44.931482	257.759094	240.516663
44.983910	230.388641	215.854645
45.036339	190.200806	179.977417
45.088768	187.854767	176.258087
45.141197	188.770294	179.824829
45.193626	261.249542	239.143372
45.246054	291.919708	270.652771
45.298483	292.205811	274.047852
45.350912	283.622742	265.331268
45.403341	230.731964	213.260651
45.455770	214.614868	206.813812
45.508198	295.219421	272.312164
45.560627	222.892761	206.966400
45.613056	197.467804	183.162689
45.665485	224.590302	207.386017
45.717914	295.886993	271.739960
45.770342	214.042664	199.375153
45.822771	222.339630	208.492279
45.875200	177.669525	169.200897
45.927629	210.533142	196.495056
45.980058	279.216766	259.132385
46.032486	323.143005	302.448273
46.084915	317.096710	298.347473
46.137344	282.382965	262.050629
46.189773	232.124329	222.415924
46.242202	314.235687	295.677185
46.294630	302.677155	281.620026
46.347059	338.115692	310.401917
46.399488	335.750580	318.317413
46.451917	321.369171	299.053192
46.504346	277.366638	256.500244
46.556774	273.151398	252.208710
46.609203	199.241638	186.786652
46.661632	178.070068	169.219971
46.714061	194.854736	184.402466
46.766490	243.244171	227.470398
46.818918	251.197815	237.064362
46.871347	241.546631	222.415924
46.923776	287.342072	269.756317
46.976205	316.963196	296.173096
47.028634	324.668884	306.091309
47.081062	308.609009	286.369324
47.133491	325.164795	301.818848
47.185920	315.265656	292.224884
47.238349	321.674347	304.336548
47.290778	329.074860	305.728912
47.343206	312.118530	290.699005
47.395635	335.922241	315.151215
47.448064	310.020447	295.372009
47.500493	295.028687	280.990601
47.552922	318.660736	298.805237
47.605350	317.382812	306.873322
47.657779	243.759155	226.631165
47.710208	196.571350	184.249878
47.762637	176.773071	170.307159
47.815066	213.603973	198.993683
47.867494	198.383331	181.427002
47.919923	316.715240	294.361115
47.972352	339.412689	318.412781
48.024781	237.789154	224.552155
48.077210	229.377747	218.219757
48.129638	203.800201	188.674927
48.182067	186.061859	174.083710
48.234496	225.639343	214.462280
48.286925	272.521973	257.472992
48.339354	274.162292	252.971649
48.391782	253.601074	231.342316
48.444211	247.039795	233.230591
48.496640	279.254913	263.214111
48.549069	315.475464	297.603607
48.601498	264.148712	246.944427
48.653926	242.080688	225.181580
48.706355	197.334290	186.061859
48.758784	223.712921	210.418701
48.811213	194.892883	182.495117
48.863642	214.767456	204.372406
48.916070	174.045563	169.162750
48.968499	179.958344	168.514252
49.020928	181.579590	170.173645
49.073357	197.830200	189.380646
49.125786	173.225403	158.939362
49.178214	181.446075	165.042877
49.230643	164.699554	155.525208
49.283072	190.448761	176.448822
49.335501	220.336914	202.407837
49.387930	334.854126	310.649872
49.440358	326.004028	299.186707
49.492787	302.333832	288.124084
49.545216	333.213806	317.554474
49.597645	242.652893	229.377747
49.650074	332.012177	312.519073
49.702502	347.309113	328.693390
49.754931	336.780548	311.603546
49.807360	327.415466	311.374664
49.859789	264.625549	248.394012
49.912218	274.543762	255.260468
49.964646	282.611847	267.868042
50.017075	283.412933	263.423920
50.069504	287.303925	272.636414
50.121933	191.783905	180.797577
50.174362	186.767578	172.061920
50.226790	174.541473	168.399811
50.279219	196.285248	186.138153
50.331648	210.399628	196.475983
50.384077	193.405151	179.386139
50.436506	291.805267	274.696350
50.488934	322.952271	303.134918
50.541363	365.657806	343.990326
50.593792	355.472565	335.903168
50.646221	325.546265	302.448273
50.698650	335.769653	315.570831
50.751078	341.300964	319.824219
50.803507	341.968536	321.102142
50.855936	307.884216	290.832520
50.908365	308.361053	291.385651
50.960794	248.928070	228.118896
51.013222	283.756256	264.606476
51.065651	243.835449	229.320526
51.118080	331.382751	318.927765
51.170509	263.137817	249.824524
51.222938	351.200104	332.679749
51.275366	362.758636	341.720581
51.327795	351.810455	332.546234
51.380224	306.262970	287.723541
51.432653	171.527863	161.209106
51.485082	176.525116	164.794922
51.537510	169.830322	155.830383
51.589939	205.783844	192.871094
51.642368	209.770203	195.770264
51.694797	205.192566	193.653107
51.747226	327.987671	313.701630
51.799654	317.745209	299.491882
51.852083	345.401764	332.031250
51.904512	348.014832	327.568054
51.956941	360.050201	332.412720
52.009370	311.374664	290.031433
52.061798	269.260406	255.279541
52.114227	190.963745	178.451538
52.166656	174.865723	162.277222
52.219085	181.674957	167.598724
52.271514	179.042816	172.367096
52.323942	168.132782	159.301758
52.376371	218.772888	207.672119
52.428800	255.527496	245.285034
52.481229	254.440308	235.080719
52.533658	210.838318	198.783875
52.586086	177.192688	165.519714
52.638515	221.004486	207.748413
52.690944	223.464966	208.740234
52.743373	282.058716	264.968872
52.795802	213.985443	201.282501
52.848230	231.513977	218.029022
52.900659	238.666534	221.900940
52.953088	191.440582	175.514221
53.005517	231.227875	215.530396
53.057946	193.519592	183.715820
53.110374	200.080872	186.672211
53.162803	308.170319	289.974213
53.215232	308.132172	287.971497
53.267661	263.595581	247.821808
53.320090	216.293335	201.530457
53.372518	247.039795	233.154297
53.424947	170.326233	157.871246
53.477376	181.102753	164.566040
53.529805	204.601288	189.170837
53.582234	189.590454	177.936554
53.634662	238.552094	224.342346
53.687091	354.957581	332.336426
53.739520	343.189240	324.325562
53.791949	361.747742	337.696075
53.844378	363.197327	337.638855
53.896806	283.298492	264.034271
53.949235	176.963806	167.388916
54.001664	173.301697	159.664154
54.054093	191.173553	176.239014
54.106522	165.290833	157.642365
54.158950	199.775696	185.527802
54.211379	277.385712	265.865326
54.263808	169.982910	160.217285
54.316237	179.405212	171.108246
54.368666	192.317963	181.312561
54.421094	166.301727	157.032013
54.473523	187.911987	178.337097
54.525952	235.729218	225.315094
54.578381	280.265808	267.467499
54.630810	315.341949	298.805237
54.683238	330.066681	311.889648
54.735667	321.121216	298.843384
54.788096	355.930328	335.350037
54.840525	356.025696	330.410004
54.892954	295.124054	277.938843
54.945382	216.007233	199.069977
54.997811	184.192657	170.173645
55.050240	199.375153	189.418793
55.102669	194.435120	179.004669
55.155098	192.775726	182.266235
55.207526	182.437897	169.620514
55.259955	257.167816	239.982605
55.312384	351.257324	328.121185
55.364813	354.137421	328.083038
55.417242	297.718048	275.802612
55.469670	282.039642	260.467529
55.522099	301.494598	284.729004
55.574528	225.296021	207.920074
55.626957	181.503296	171.508789
55.679386	202.331543	185.680389
55.731814	235.118866	219.955444
55.784243	187.454224	174.694061
55.836672	183.773041	170.783997
55.889101	307.369232	286.979675
55.941530	348.815918	328.006744
55.993958	321.636200	302.066803
56.046387	312.080383	291.690826
56.098816	195.808411	183.029175
56.151245	209.980011	196.208954
56.203674	260.982513	243.339539
56.256102	328.025818	308.361053
56.308531	355.758667	333.633423
56.360960	360.908508	342.025757
56.413389	322.933197	304.260254
56.465818	252.170563	239.276886
56.518246	312.805176	295.352936
56.570675	341.300964	317.134857
56.623104	343.627930	315.761566
56.675533	338.935852	323.486328
56.727962	311.698914	297.431946
56.780390	345.268250	327.606201
56.832819	358.142853	336.933136
56.885248	360.221863	335.960388
56.937677	358.581543	334.453583
56.990106	275.688171	256.519318
57.042534	190.429687	175.876617
57.094963	171.337128	161.914825
57.147392	170.860291	162.734985
57.199821	201.702118	188.102722
57.252250	196.666718	184.173584
57.304678	169.525146	159.778595
57.357107	169.334412	161.342621
57.409536	200.557709	189.819336
57.461965	176.811218	170.097351
57.514394	234.260559	215.187073
57.566822	327.072144	301.666260
57.619251	302.238464	282.077789
57.671680	230.560303	217.666626
57.724109	240.097046	223.064423
57.776538	309.429169	288.486481
57.828966	338.172913	315.456390
57.881395	357.799530	338.249207
57.933824	349.521637	326.347351
57.986253	360.698700	339.393616
58.038682	362.720490	341.777802
58.091110	347.995758	330.371857
58.143539	362.491608	332.832336
58.195968	352.649689	334.682465
58.248397	336.322784	317.993164
58.300826	251.083374	235.157013
58.353254	288.734436	268.764496
58.405683	370.540619	351.161957
58.458112	339.965820	327.568054
58.510541	300.006866	278.263092
58.562970	322.761536	304.698944
58.615398	356.693268	343.456268
58.667827	377.388000	352.363586
58.720256	371.017456	348.091125
58.772685	324.707031	305.118561
58.825114	310.497284	288.429260
58.877542	273.323059	261.573792
58.929971	323.791504	298.557281
58.982400	344.142914	329.914093
59.034829	349.102020	330.200195
59.087258	353.202820	327.529907
59.139686	304.985046	290.145874
59.192115	258.350372	245.056152
59.244544	368.328094	341.873169
59.296973	363.025665	333.461761
59.349402	346.450806	320.892334
59.401830	327.033997	306.110382
59.454259	306.816101	285.415649
59.506688	327.777863	306.262970
59.559117	363.445282	344.009399
59.611546	355.339050	335.693359
59.663974	330.429077	311.565399
59.716403	335.254669	319.805145
59.768832	302.276611	283.889771
59.821261	348.873138	331.592560
59.873690	343.818665	321.369171
59.926118	330.123901	312.938690
59.978547	272.216797	257.740021
