27/10/2021	12:56
Experiment Type:	Sizing
Pseudo Cross Correlation
Scattering angle:	15.0
Duration (s):	60
Wavelength (nm):	660.0
Refractive index:	1.330
Viscosity (mPas):	0.980
Temperature (K):	294.0
Laser intensity (mW):	0.131075
Average Count rate  A (kHz):	248.4
Average Count rate  B (kHz):	233.0
Intercept:	1.0000
Cumulant 1st	-Inf
Cumulant 2nd	-Inf	NaN
Cumulant 3rd	-Inf	NaN

Lag time (s)         g2-1
1.250000E-8	0.002259
2.500000E-8	0.009007
3.750000E-8	-0.004811
5.000000E-8	-0.000182
6.250000E-8	-0.004719
7.500000E-8	-0.003176
8.750000E-8	-0.000136
1.000000E-7	-0.000113
1.125000E-7	0.001085
1.250000E-7	-0.003337
1.375000E-7	0.007441
1.500000E-7	0.004401
1.625000E-7	0.000279
1.750000E-7	-0.001471
1.875000E-7	0.008454
2.000000E-7	-0.002001
2.125000E-7	0.000716
2.375000E-7	-0.001587
2.625000E-7	-0.001356
2.875000E-7	0.003871
3.125000E-7	0.002478
3.375000E-7	0.000682
3.625000E-7	-0.001610
3.875000E-7	0.000958
4.125000E-7	-0.001143
4.625000E-7	-0.000717
5.125000E-7	0.001764
5.625000E-7	0.001010
6.125000E-7	-1.488307E-5
6.625000E-7	-0.001138
7.125000E-7	0.002507
7.625000E-7	0.001361
8.125000E-7	0.001030
9.125000E-7	0.000829
1.012500E-6	-0.000104
1.112500E-6	0.000498
1.212500E-6	0.001606
1.312500E-6	0.001799
1.412500E-6	0.004263
1.512500E-6	0.001255
1.612500E-6	0.002508
1.812500E-6	0.001223
2.012500E-6	-0.000293
2.212500E-6	0.001673
2.412500E-6	0.002389
2.612500E-6	0.003152
2.812500E-6	0.002393
3.012500E-6	0.000257
3.212500E-6	0.001865
3.612500E-6	0.000634
4.012500E-6	0.001288
4.412500E-6	0.000459
4.812500E-6	0.001230
5.212500E-6	0.000680
5.612500E-6	0.000391
6.012500E-6	0.000977
6.412500E-6	0.001638
7.212500E-6	0.000519
8.012500E-6	-0.000238
8.812500E-6	0.001817
9.612500E-6	0.000825
1.041250E-5	0.000527
1.121250E-5	0.001999
1.201250E-5	0.000539
1.281250E-5	0.000615
1.441250E-5	0.000613
1.601250E-5	0.001413
1.761250E-5	0.000697
1.921250E-5	0.000505
2.081250E-5	0.000476
2.241250E-5	0.000475
2.401250E-5	0.000525
2.561250E-5	0.000668
2.881250E-5	0.001177
3.201250E-5	0.001119
3.521250E-5	0.000977
3.841250E-5	0.001005
4.161250E-5	0.000611
4.481250E-5	0.001458
4.801250E-5	0.001723
5.121250E-5	0.001433
5.761250E-5	0.000923
6.401250E-5	0.000763
7.041250E-5	0.000602
7.681250E-5	0.000907
8.321250E-5	0.000994
8.961250E-5	0.000810
9.601250E-5	0.000666
0.000102	0.000760
0.000115	0.001069
0.000128	0.000998
0.000141	0.000580
0.000154	0.000947
0.000166	0.000781
0.000179	0.001059
0.000192	0.000941
0.000205	0.000791
0.000230	0.000805
0.000256	0.000945
0.000282	0.000921
0.000307	0.001046
0.000333	0.000897
0.000358	0.000856
0.000384	0.000916
0.000410	0.000913
0.000461	0.000923
0.000512	0.000864
0.000563	0.000901
0.000614	0.001095
0.000666	0.000905
0.000717	0.000965
0.000768	0.001008
0.000819	0.000982
0.000922	0.000887
0.001024	0.000897
0.001126	0.000968
0.001229	0.000937
0.001331	0.000972
0.001434	0.001015
0.001536	0.000974
0.001638	0.000916
0.001843	0.000990
0.002048	0.000910
0.002253	0.000990
0.002458	0.000950
0.002662	0.000974
0.002867	0.000965
0.003072	0.000957
0.003277	0.000903
0.003686	0.000899
0.004096	0.000908
0.004506	0.000962
0.004915	0.000931
0.005325	0.000943
0.005734	0.000938
0.006144	0.000904
0.006554	0.000930
0.007373	0.000927
0.008192	0.000945
0.009011	0.000910
0.009830	0.000916
0.010650	0.000906
0.011469	0.000923
0.012288	0.000891
0.013107	0.000934
0.014746	0.000903
0.016384	0.000913
0.018022	0.000911
0.019661	0.000918
0.021299	0.000882
0.022938	0.000874
0.024576	0.000865
0.026214	0.000866
0.029491	0.000867
0.032768	0.000869
0.036045	0.000850
0.039322	0.000836
0.042598	0.000827
0.045875	0.000820
0.049152	0.000826
0.052429	0.000824
0.058982	0.000801
0.065536	0.000790
0.072090	0.000760
0.078643	0.000752
0.085197	0.000732
0.091750	0.000725
0.098304	0.000722
0.104858	0.000715
0.117965	0.000681
0.131072	0.000662
0.144179	0.000637
0.157286	0.000601
0.170394	0.000590
0.183501	0.000565
0.196608	0.000558
0.209715	0.000548
0.235930	0.000498
0.262144	0.000453
0.288358	0.000411
0.314573	0.000383
0.340787	0.000353
0.367002	0.000305
0.393216	0.000282
0.419430	0.000258
0.471859	0.000214
0.524288	0.000172
0.576717	0.000121
0.629146	8.613550E-5
0.681574	5.518713E-5
0.734003	1.698149E-5
0.786432	-2.720175E-5
0.838861	-7.656529E-5
0.943718	-0.000175
1.048576	-0.000262
1.153434	-0.000357
1.258291	-0.000474
1.363149	-0.000552
1.468006	-0.000621
1.572864	-0.000726
1.677722	-0.000799
1.887437	-0.000974
2.097152	-0.001112
2.306867	-0.001239
2.516582	-0.001272
2.726298	-0.001320
2.936013	-0.001366
3.145728	-0.001471
3.355443	-0.001596
3.774873	-0.001941
4.194304	-0.002407
4.613734	-0.002721
5.033165	-0.002793
5.452595	-0.002802
5.872025	-0.002956
6.291456	-0.003311
6.710886	-0.003635
7.549747	-0.003701
8.388608	-0.003306
9.227468	-0.003479
10.066330	-0.003917
10.905190	-0.003835
11.744051	-0.003204
12.582912	-0.003153
13.421773	-0.002728
15.099494	-0.002611
16.777216	-0.002015
18.454937	-0.001225
20.132660	-0.000279
21.810381	0.000697
23.488102	0.000565
25.165825	-0.001166
26.843546	-0.002547
30.198988	-0.005677
33.554432	-0.009211
36.909874	-0.011073
40.265320	-0.013133
43.620762	-0.014559
46.976204	-0.018947
50.331650	-0.024760

Count Rate History (KHz)  CR CHA / CR CHB
0.000000	256.137848	241.184235
0.052429	256.557465	243.434906
0.104858	255.718231	243.206024
0.157286	255.985260	237.140656
0.209715	257.816315	243.873596
0.262144	254.135132	239.315033
0.314573	254.364014	242.748260
0.367002	258.216858	238.170624
0.419430	255.146027	236.473083
0.471859	256.023407	236.625671
0.524288	256.786346	239.105225
0.576717	254.173279	235.366821
0.629146	250.358582	236.740112
0.681574	252.819061	237.083435
0.734003	253.467560	237.655640
0.786432	252.971649	241.355896
0.838861	255.107880	239.486694
0.891290	256.862640	240.287781
0.943718	256.576538	238.990784
0.996147	255.050659	240.440369
1.048576	260.028839	238.704681
1.101005	257.148743	243.301392
1.153434	261.783600	244.312286
1.205862	258.941650	247.364044
1.258291	262.603760	240.783691
1.310720	263.557434	246.334076
1.363149	262.832642	239.715576
1.415578	263.996124	247.745514
1.468006	264.053345	247.879028
1.520435	265.808105	247.383118
1.572864	268.039703	244.579315
1.625293	259.037018	242.996216
1.677722	259.799957	244.979858
1.730150	263.729095	248.394012
1.782579	259.990692	244.655609
1.835008	258.769989	246.009827
1.887437	259.227753	245.208740
1.939866	259.342194	239.830017
1.992294	259.552002	245.056152
2.044723	264.434814	245.952606
2.097152	263.576508	249.710083
2.149581	264.663696	247.230530
2.202010	260.562897	245.018005
2.254438	258.846283	236.740112
2.306867	254.402161	235.881805
2.359296	252.132416	236.740112
2.411725	255.184174	236.873627
2.464154	252.971649	232.295990
2.516582	252.017975	236.454010
2.569011	251.560211	232.086182
2.621440	248.413086	233.497620
2.673869	249.824524	235.519409
2.726298	248.641968	239.257812
2.778726	251.903534	234.241486
2.831155	252.876282	236.778259
2.883584	249.614716	235.042572
2.936013	249.919891	236.129761
2.988442	253.562927	238.914490
3.040870	258.045197	239.601135
3.093299	250.453949	232.925415
3.145728	255.775452	240.573883
3.198157	253.944397	232.486725
3.250586	255.126953	239.486694
3.303014	254.154205	238.876343
3.355443	251.541138	241.241455
3.407872	251.674652	239.162445
3.460301	253.124237	235.557556
3.512730	257.587433	240.859985
3.565158	256.404877	237.560272
3.617587	255.966187	240.783691
3.670016	260.066986	242.538452
3.722445	254.840851	238.342285
3.774874	260.257721	239.753723
3.827302	257.873535	241.985321
3.879731	260.906219	246.696472
3.932160	263.328552	245.800018
3.984589	265.445709	248.889923
4.037018	264.797211	246.276855
4.089446	258.941650	248.813629
4.141875	262.222290	245.780945
4.194304	260.543823	242.309570
4.246733	264.225006	245.914459
4.299162	259.761810	246.410370
4.351590	260.410309	245.552063
4.404019	258.312225	244.789124
4.456448	261.936188	242.652893
4.508877	251.407623	239.505768
4.561306	251.789093	234.279633
4.613734	247.821808	234.298706
4.666163	252.895355	232.906342
4.718592	251.464844	233.573914
4.771021	248.947144	237.121582
4.823450	252.246857	237.522125
4.875878	249.729156	235.977173
4.928307	247.268677	234.966278
4.980736	251.121521	231.990814
5.033165	247.516632	235.099792
5.085594	249.404907	232.791901
5.138022	247.211456	229.930878
5.190451	248.222351	234.413147
5.242880	249.576569	233.173370
5.295309	248.222351	230.922699
5.347738	253.715515	237.159729
5.400166	249.462128	232.601166
5.452595	253.257751	236.988068
5.505024	248.584747	237.464905
5.557453	253.334045	234.260559
5.609882	256.404877	235.214233
5.662310	251.770020	239.353180
5.714739	253.124237	235.767365
5.767168	251.655579	235.061646
5.819597	256.519318	239.562988
5.872026	256.977081	239.219666
5.924454	255.985260	242.862701
5.976883	257.186890	240.192413
6.029312	260.009766	241.222382
6.081741	258.712769	242.290497
6.134170	257.930756	237.426758
6.186598	260.715485	242.347717
6.239027	253.925323	241.451263
6.291456	256.233215	239.429474
6.343885	258.178711	238.170624
6.396314	255.813599	242.500305
6.448742	253.219604	236.549377
6.501171	253.295898	241.203308
6.553600	250.816345	236.434937
6.606029	255.470276	240.573883
6.658458	251.827240	238.170624
6.710886	254.898071	238.475800
6.763315	249.500275	235.443115
6.815744	257.720947	238.933563
6.868173	252.399445	236.530304
6.920602	253.124237	238.933563
6.973030	242.652893	233.173370
7.025459	248.451233	236.930847
7.077888	247.592926	237.236023
7.130317	243.721008	229.644775
7.182746	246.124268	229.415894
7.235174	243.492126	234.451294
7.287603	245.056152	230.884552
7.340032	244.407654	228.633881
7.392461	246.734619	228.061676
7.444890	243.988037	228.538513
7.497318	248.603821	229.320526
7.549747	244.922638	227.508545
7.602176	240.402222	227.775574
7.654605	240.154266	224.170685
7.707034	239.620209	222.816467
7.759462	244.960785	230.255127
7.811891	241.489410	227.088928
7.864320	239.868164	226.554871
7.916749	238.647461	226.154327
7.969178	242.290497	224.876404
8.021606	241.870880	224.113464
8.074035	233.688354	223.903656
8.126464	243.244171	225.944519
8.178893	241.928101	225.887299
8.231322	244.159698	230.007172
8.283750	245.819092	226.631165
8.336179	247.917175	228.767395
8.388608	243.358612	228.195190
8.441037	248.775482	233.974457
8.493466	250.778198	230.045319
8.545894	248.966217	233.993530
8.598323	242.595673	225.200653
8.650752	248.661041	232.124329
8.703181	251.789093	238.075256
8.755610	253.429413	231.323242
8.808038	250.377655	234.661102
8.860467	251.102448	238.513947
8.912896	249.843597	235.195160
8.965325	249.671936	233.135223
9.017754	248.680115	233.917236
9.070182	249.118805	235.652924
9.122611	252.037048	237.541199
9.175040	253.467560	238.971710
9.227469	254.344940	238.952637
9.279898	254.936218	236.148834
9.332326	253.124237	239.601135
9.384755	253.200531	235.233307
9.437184	251.865387	242.290497
9.489613	260.639191	238.704681
9.542042	254.955292	238.399506
9.594470	251.808167	236.263275
9.646899	253.658295	233.516693
9.699328	252.819061	238.304138
9.751757	252.246857	242.614746
9.804186	255.336761	240.612030
9.856614	254.001617	242.118835
9.909043	253.047943	239.372253
9.961472	251.216888	235.309601
10.013901	250.949860	235.519409
10.066330	246.505737	235.767365
10.118758	247.745514	235.290527
10.171187	245.971680	233.669281
10.223616	245.399475	228.824615
10.276045	246.677399	233.306885
10.328474	241.966248	226.726532
10.380902	241.279602	226.860046
10.433331	245.227814	231.628418
10.485760	240.535736	227.966309
10.538189	238.189697	225.543976
10.590618	243.663788	224.838257
10.643046	243.167877	227.336884
10.695475	246.334076	232.105255
10.747904	246.658325	234.756470
10.800333	247.535706	229.148865
10.852762	246.639252	230.636597
10.905190	246.734619	230.216980
10.957619	239.982605	228.424072
11.010048	242.824554	226.535797
11.062477	239.639282	221.099854
11.114906	230.846405	222.434998
11.167334	236.454010	220.165253
11.219763	235.195160	222.644806
11.272192	235.061646	225.124359
11.324621	233.192444	219.898224
11.377050	240.764618	225.009918
11.429478	240.459442	218.429565
11.481907	237.159729	223.560333
11.534336	234.909058	219.726562
11.586765	235.061646	221.519470
11.639194	241.832733	225.105286
11.691622	244.750977	223.217010
11.744051	241.184235	231.075287
11.796480	242.137909	229.053497
11.848909	240.592957	226.669312
11.901338	245.990753	228.824615
11.953766	247.478485	229.873657
12.006195	257.205963	239.334106
12.058624	253.868103	236.129761
12.111053	249.004364	231.933594
12.163482	247.325897	235.481262
12.215910	248.527527	233.993530
12.268339	247.821808	236.167908
12.320768	252.513885	238.780975
12.373197	247.154236	227.718353
12.425626	245.780945	228.996277
12.478054	242.347717	227.909088
12.530483	243.511200	225.143433
12.582912	242.347717	232.086182
12.635341	246.238708	231.094360
12.687770	246.353149	229.587555
12.740198	250.167847	231.342316
12.792627	244.045258	228.080750
12.845056	241.355896	228.939056
12.897485	241.413116	227.069855
12.949914	231.094360	220.069885
13.002342	235.023499	218.544006
13.054771	233.020782	221.080780
13.107200	241.413116	225.753784
13.159629	240.936279	226.631165
13.212058	239.849091	224.514008
13.264486	236.186981	226.078033
13.316915	240.955353	227.832794
13.369344	241.909027	231.151581
13.421773	242.691040	229.225159
13.474202	239.257812	227.241516
13.526630	243.492126	225.830078
13.579059	241.584778	232.334137
13.631488	247.020721	231.151581
13.683917	248.146057	229.969025
13.736346	250.511169	233.478546
13.788774	247.230530	232.620239
13.841203	247.268677	232.677460
13.893632	241.432190	228.080750
13.946061	242.481232	230.445862
13.998490	237.216949	221.462250
14.050918	238.227844	222.225189
14.103347	240.478516	224.151611
14.155776	241.737366	235.900879
14.208205	245.265961	227.050781
14.260634	244.522095	232.295990
14.313062	250.625610	237.178802
14.365491	244.350433	229.969025
14.417920	252.037048	235.748291
14.470349	251.789093	240.325928
14.522778	255.088806	233.440399
14.575206	250.320435	232.276917
14.627635	248.718262	231.761932
14.680064	249.156952	232.639313
14.732493	254.039764	232.906342
14.784922	254.650116	236.358643
14.837350	256.214142	237.197876
14.889779	256.347656	236.740112
14.942208	246.067047	232.028961
14.994637	241.050720	229.148865
15.047066	245.113373	233.421326
15.099494	249.443054	237.216949
15.151923	238.990784	230.884552
15.204352	246.582031	229.473114
15.256781	244.941711	229.949951
15.309210	249.710083	227.890015
15.361638	241.870880	228.805542
15.414067	245.761871	233.097076
15.466496	244.541168	232.448578
15.518925	251.388550	236.968994
15.571354	246.448517	233.039856
15.623782	249.137878	232.715607
15.676211	240.631104	223.503113
15.728640	238.590240	225.067139
15.781069	236.511230	219.955444
15.833498	236.473083	221.900940
15.885926	234.870911	221.786499
15.938355	237.579346	227.527618
15.990784	246.219635	233.764648
16.043213	243.911743	231.246948
16.095642	238.075256	223.808289
16.148070	238.609314	223.827362
16.200499	237.350464	222.682953
16.252928	238.361359	221.176147
16.305357	240.440369	230.445862
16.357786	240.268707	229.053497
16.410214	247.497559	230.617523
16.462643	242.023468	223.274231
16.515072	244.426727	229.187012
16.567501	247.898102	230.388641
16.619930	245.857239	228.958130
16.672358	247.192383	235.557556
16.724787	249.290466	238.666534
16.777216	252.304077	233.669281
16.829645	248.813629	227.794647
16.882074	242.366791	222.759247
16.934502	241.718292	225.696564
16.986931	241.584778	227.012634
17.039360	246.124268	232.353210
17.091789	251.750946	239.105225
17.144218	250.282288	238.056183
17.196646	247.592926	235.500336
17.249075	250.225067	233.039856
17.301504	249.366760	235.881805
17.353933	247.554779	231.342316
17.406362	250.015259	232.830048
17.458790	242.080688	224.800110
17.511219	242.443085	230.236053
17.563648	241.813660	229.339600
17.616077	249.652863	226.593018
17.668506	244.102478	227.794647
17.720934	239.810944	228.881836
17.773363	241.374969	223.369598
17.825792	242.595673	230.331421
17.878221	242.671967	229.091644
17.930650	245.895386	228.881836
17.983078	243.835449	226.573944
18.035507	244.541168	227.546692
18.087936	247.211456	225.315094
18.140365	240.135193	227.527618
18.192794	238.685608	223.083496
18.245222	239.543915	224.456787
18.297651	236.167908	223.331451
18.350080	238.323212	222.053528
18.402509	236.511230	223.903656
18.454938	244.121552	222.969055
18.507366	237.293243	226.459503
18.559795	234.470367	221.271515
18.612224	240.764618	224.723816
18.664653	237.541199	224.132538
18.717082	240.573883	222.129822
18.769510	239.524841	222.206116
18.821939	242.424011	227.928162
18.874368	245.971680	224.304199
18.926797	238.037109	223.674774
18.979226	235.519409	222.721100
19.031654	237.636566	223.770142
19.084083	238.971710	223.636627
19.136512	237.960815	225.410461
19.188941	239.810944	222.969055
19.241370	241.909027	229.778290
19.293798	244.827271	229.053497
19.346227	249.195099	231.628418
19.398656	242.996216	231.494904
19.451085	247.192383	231.533051
19.503514	246.562958	227.222443
19.555942	250.720978	230.178833
19.608371	246.372223	235.424042
19.660800	245.590210	231.494904
19.713229	246.601105	230.503082
19.765658	244.522095	228.214264
19.818086	244.045258	230.636597
19.870515	246.963501	231.399536
19.922944	249.252319	231.380463
19.975373	248.908997	236.320496
20.027802	246.257782	233.192444
20.080230	252.876282	233.078003
20.132659	244.064331	233.592987
20.185088	247.440338	236.549377
20.237517	251.483917	234.470367
20.289946	249.938965	234.813690
20.342374	246.849060	233.364105
20.394803	246.849060	229.473114
20.447232	250.682831	230.903625
20.499661	248.069763	235.939026
20.552090	244.045258	233.058929
20.604518	245.208740	233.688354
20.656947	243.835449	233.917236
20.709376	243.949890	230.998993
20.761805	239.467621	226.898193
20.814234	238.533020	227.146149
20.866662	239.906311	228.443146
20.919091	239.715576	218.849182
20.971520	238.265991	224.933624
21.023949	244.674683	227.165222
21.076378	242.309570	230.178833
21.128806	245.056152	233.020782
21.181235	242.671967	225.982666
21.233664	243.701935	228.443146
21.286093	242.004395	229.549408
21.338522	239.410400	230.026245
21.390950	237.960815	221.405029
21.443379	234.622955	223.922729
21.495808	236.148834	219.669342
21.548237	237.979889	218.143463
21.600666	240.020752	220.661163
21.653094	238.304138	223.121643
21.705523	241.680145	224.437714
21.757952	244.846344	231.094360
21.810381	249.500275	231.857300
21.862810	258.388519	241.508484
21.915238	254.783630	240.859985
21.967667	252.742767	240.402222
22.020096	250.034332	233.707428
22.072525	247.058868	232.791901
22.124954	246.334076	232.048035
22.177382	245.361328	229.873657
22.229811	246.334076	227.432251
22.282240	249.614716	229.244232
22.334669	247.955322	230.789185
22.387098	242.977142	226.707458
22.439526	247.726440	229.740143
22.491955	252.056122	236.263275
22.544384	255.107880	240.783691
22.596813	257.320404	242.900848
22.649242	263.957977	249.633789
22.701670	260.505676	245.895386
22.754099	255.069733	240.516663
22.806528	261.192322	242.977142
22.858957	256.881714	235.691071
22.911386	250.988007	231.685638
22.963814	252.952576	236.225128
23.016243	244.770050	229.530334
23.068672	247.993469	232.334137
23.121101	243.301392	227.279663
23.173530	242.938995	227.985382
23.225958	240.726471	227.317810
23.278387	243.988037	226.821899
23.330816	241.413116	227.375031
23.383245	246.829987	230.770111
23.435674	245.018005	231.761932
23.488102	250.568390	235.557556
23.540531	249.080658	238.304138
23.592960	253.372192	239.105225
23.645389	253.734589	238.933563
23.697818	249.843597	231.361389
23.750246	250.015259	236.415863
23.802675	247.211456	234.031677
23.855104	254.745483	238.838196
23.907533	260.257721	243.072510
23.959962	268.554687	250.854492
24.012390	263.404846	248.298645
24.064819	271.682739	257.911682
24.117248	272.750854	256.958008
24.169677	279.693604	261.631012
24.222106	270.137787	253.238678
24.274534	264.911652	246.334076
24.326963	265.445709	249.176025
24.379392	257.015228	240.364075
24.431821	261.802673	241.718292
24.484250	255.603790	240.077972
24.536678	253.868103	234.394073
24.589107	256.137848	238.361359
24.641536	251.693726	234.584808
24.693965	252.208710	235.176086
24.746394	251.064301	236.701965
24.798822	247.631073	231.552124
24.851251	248.584747	236.759186
24.903680	250.892639	233.821869
24.956109	256.175995	242.633820
25.008538	252.647400	236.854553
25.060966	254.364014	233.192444
25.113395	255.851746	239.067078
25.165824	259.113312	244.274139
25.218253	258.293152	237.407684
25.270682	257.606506	243.320465
25.323110	250.511169	240.783691
25.375539	257.873535	237.731934
25.427968	255.737305	240.097046
25.480397	254.688263	239.849091
25.532826	247.364044	232.887268
25.585254	254.116058	231.323242
25.637683	246.658325	231.609344
25.690112	258.045197	238.265991
25.742541	254.173279	239.830017
25.794970	257.129669	238.056183
25.847398	255.870819	241.756439
25.899827	258.693695	237.827301
25.952256	256.290436	239.257812
26.004685	255.146027	240.383148
26.057114	261.363983	248.908997
26.109542	263.385773	252.437592
26.161971	260.715485	245.456696
26.214400	258.083344	245.037079
26.266829	257.186890	241.947174
26.319258	266.113281	247.612000
26.371686	256.252289	244.331360
26.424115	260.486603	242.767334
26.476544	261.211395	247.058868
26.528973	258.617401	246.982574
26.581402	258.426666	240.249634
26.633830	257.434845	242.404938
26.686259	257.873535	242.233276
26.738688	257.930756	244.426727
26.791117	258.941650	246.791840
26.843546	258.960724	244.159698
26.895974	257.186890	242.424011
26.948403	258.846283	243.225098
27.000832	254.802704	244.274139
27.053261	259.437561	240.173340
27.105690	251.655579	236.682892
27.158118	258.789062	239.639282
27.210547	261.917114	241.088867
27.262976	255.146027	240.058899
27.315405	250.358582	239.257812
27.367834	253.887177	238.399506
27.420262	257.816315	240.192413
27.472691	255.451202	241.641998
27.525120	257.587433	246.963501
27.577549	260.410309	246.620178
27.629978	265.522003	248.756409
27.682406	271.644592	255.813599
27.734835	250.568390	237.255096
27.787264	256.881714	239.295959
27.839693	259.914398	239.505768
27.892122	258.426666	241.546631
27.944550	253.200531	236.282349
27.996979	247.020721	231.361389
28.049408	242.042542	231.990814
28.101837	247.859955	229.949951
28.154266	250.854492	240.211487
28.206694	258.350372	238.399506
28.259123	265.083313	243.835449
28.311552	263.977051	242.328644
28.363981	252.895355	240.154266
28.416410	247.783661	230.369568
28.468838	254.058838	242.881775
28.521267	257.797241	243.129730
28.573696	255.641937	239.028931
28.626125	258.731842	242.424011
28.678554	255.393982	236.034393
28.730982	255.165100	235.538483
28.783411	253.353119	240.879059
28.835840	251.483917	240.287781
28.888269	247.230530	230.216980
28.940698	250.225067	232.486725
28.993126	250.911713	233.650208
29.045555	247.135162	227.603912
29.097984	246.295929	226.249695
29.150413	248.222351	228.443146
29.202842	253.257751	239.181519
29.255270	248.489380	235.805511
29.307699	257.720947	236.701965
29.360128	261.306763	238.437653
29.412557	254.020691	237.617493
29.464986	253.009796	238.895416
29.517414	253.314972	235.996246
29.569843	252.285004	236.587524
29.622272	251.178741	236.415863
29.674701	252.971649	232.353210
29.727130	247.249603	237.522125
29.779558	249.881744	237.941742
29.831987	254.383087	235.042572
29.884416	253.582001	241.451263
29.936845	262.432098	238.227844
29.989274	253.486633	240.879059
30.041702	257.320404	237.426758
30.094131	251.007080	242.004395
30.146560	253.448486	235.996246
30.198989	254.173279	235.042572
30.251418	255.699158	236.282349
30.303846	254.230499	235.939026
30.356275	251.884460	241.260529
30.408704	258.159637	241.279602
30.461133	249.671936	237.026215
30.513562	254.764557	240.402222
30.565990	256.900787	240.039825
30.618419	254.917145	240.173340
30.670848	253.372192	235.214233
30.723277	257.396698	237.789154
30.775706	251.445770	241.451263
30.828134	254.707336	239.620209
30.880563	251.674652	234.298706
30.932992	243.186951	230.712891
30.985421	246.829987	233.955383
31.037850	244.979858	232.849121
31.090278	248.641968	236.549377
31.142707	257.854462	243.854523
31.195136	256.214142	234.317780
31.247565	254.898071	237.579346
31.299994	248.622894	237.751007
31.352422	254.478455	236.377716
31.404851	248.451233	233.268738
31.457280	253.105164	238.552094
31.509709	261.974335	239.067078
31.562138	267.639160	248.641968
31.614566	261.116028	246.467590
31.666995	258.865356	250.968933
31.719424	264.377594	249.385834
31.771853	258.159637	239.219666
31.824282	257.034302	240.840912
31.876710	255.737305	238.590240
31.929139	255.622864	237.350464
31.981568	255.603790	233.879089
32.033997	250.091553	236.740112
32.086426	251.178741	232.086182
32.138854	258.045197	238.914490
32.191283	252.017975	236.339569
32.243712	256.061554	236.244202
32.296141	255.222321	236.587524
32.348570	255.107880	236.396790
32.400998	252.628326	238.819122
32.453427	253.505707	234.966278
32.505856	253.696442	235.557556
32.558285	253.810883	235.233307
32.610714	246.982574	231.800079
32.663142	250.396729	235.519409
32.715571	252.361298	235.977173
32.768000	256.919861	243.148804
32.820429	255.699158	243.091583
32.872858	256.366730	241.718292
32.925286	252.113342	237.045288
32.977715	252.532959	236.282349
33.030144	252.151489	235.042572
33.082573	255.565643	238.704681
33.135002	258.865356	240.154266
33.187430	255.832672	238.990784
33.239859	252.914429	235.004425
33.292288	255.661011	233.592987
33.344717	250.339508	235.042572
33.397146	253.028870	234.394073
33.449574	250.148773	236.454010
33.502003	253.620148	236.148834
33.554432	250.492096	238.571167
33.606861	257.415771	237.884521
33.659290	256.748199	241.832733
33.711718	249.519348	238.742828
33.764147	251.331329	231.990814
33.816576	255.928040	238.857269
33.869005	251.579285	233.592987
33.921434	251.083374	235.385895
33.973862	251.941681	234.661102
34.026291	250.167847	234.889984
34.078720	253.276825	235.729218
34.131149	245.456696	232.734680
34.183578	253.620148	234.680176
34.236006	251.502991	234.737396
34.288435	249.137878	229.911804
34.340864	249.691010	229.606628
34.393293	246.257782	228.080750
34.445722	245.800018	231.704712
34.498150	244.960785	227.432251
34.550579	242.385864	226.821899
34.603008	243.663788	232.048035
34.655437	245.380402	234.985352
34.707866	250.415802	232.830048
34.760294	247.726440	233.707428
34.812723	245.323181	228.271484
34.865152	245.037079	228.328705
34.917581	243.759155	227.375031
34.970010	241.584778	231.361389
35.022438	241.794586	229.549408
35.074867	242.023468	228.900909
35.127296	248.298645	228.729248
35.179725	245.418549	226.459503
35.232154	246.562958	225.753784
35.284582	243.740082	228.958130
35.337011	245.838165	230.960846
35.389440	242.252350	228.118896
35.441869	251.159668	230.541229
35.494298	249.176025	226.535797
35.546726	244.903564	233.402252
35.599155	244.350433	225.524902
35.651584	254.936218	236.206055
35.704013	252.208710	241.317749
35.756442	256.824493	242.347717
35.808870	251.388550	234.642029
35.861299	253.791809	237.426758
35.913728	252.456665	237.903595
35.966157	253.810883	235.919952
36.018586	249.729156	233.364105
36.071014	256.843567	238.437653
36.123443	254.268646	243.988037
36.175872	259.571075	246.143341
36.228301	256.538391	235.252380
36.280730	250.778198	238.704681
36.333158	250.549316	236.015320
36.385587	249.767303	233.669281
36.438016	253.639221	239.391327
36.490445	252.933502	234.661102
36.542874	250.854492	237.865448
36.595302	246.009827	231.418610
36.647731	248.203278	237.159729
36.700160	250.263214	239.830017
36.752589	249.900818	234.298706
36.805018	245.342255	233.745575
36.857446	255.908966	230.312347
36.909875	257.949829	239.944458
36.962304	256.862640	238.533020
37.014733	251.464844	241.718292
37.067162	253.124237	234.775543
37.119590	247.116089	233.650208
37.172019	249.481201	234.317780
37.224448	247.173309	229.930878
37.276877	248.146057	229.473114
37.329306	249.500275	234.069824
37.381734	258.312225	239.810944
37.434163	257.110596	236.549377
37.486592	248.832703	237.369537
37.539021	258.674622	240.535736
37.591450	251.502991	235.443115
37.643878	251.846313	236.072540
37.696307	255.775452	235.824585
37.748736	250.072479	234.432220
37.801165	241.451263	231.075287
37.853594	247.173309	228.748322
37.906022	245.208740	233.497620
37.958451	242.843628	230.998993
38.010880	247.325897	227.394104
38.063309	241.260529	227.394104
38.115738	243.682861	226.173401
38.168166	246.105194	228.500366
38.220595	242.881775	229.148865
38.273024	249.938965	232.181549
38.325453	262.393951	241.928101
38.377882	273.685455	252.399445
38.430310	259.647369	244.293213
38.482739	254.802704	235.671997
38.535168	253.562927	237.712860
38.587597	251.617432	239.162445
38.640026	250.854492	236.549377
38.692454	245.895386	233.478546
38.744883	247.612000	236.949921
38.797312	242.595673	230.255127
38.849741	247.077942	231.018066
38.902170	243.091583	228.767395
38.954598	242.443085	228.195190
39.007027	245.494843	226.840973
39.059456	239.486694	227.012634
39.111885	242.729187	227.642059
39.164314	248.298645	233.993530
39.216742	251.483917	236.053467
39.269171	250.091553	233.249664
39.321600	252.189636	240.211487
39.374029	254.364014	235.176086
39.426458	250.759125	235.748291
39.478886	249.881744	237.731934
39.531315	253.524780	233.898163
39.583744	247.821808	231.647491
39.636173	240.077972	226.879120
39.688602	248.699188	231.628418
39.741030	251.369476	237.140656
39.793459	242.862701	229.835510
39.845888	242.118835	228.290558
39.898317	240.001678	226.249695
39.950746	244.770050	230.102539
40.003174	241.489410	231.170654
40.055603	241.336823	223.388672
40.108032	238.189697	222.244263
40.160461	234.184265	221.252441
40.212890	234.565735	226.688385
40.265318	258.045197	237.712860
40.317747	248.508453	229.759216
40.370176	237.712860	224.704742
40.422605	244.503021	226.154327
40.475034	242.652893	229.625702
40.527462	248.470306	232.448578
40.579891	246.582031	228.042603
40.632320	250.225067	230.388641
40.684749	254.020691	237.121582
40.737178	256.786346	241.336823
40.789606	258.693695	239.276886
40.842035	255.165100	235.919952
40.894464	249.843597	239.276886
40.946893	246.372223	238.857269
40.999322	246.810913	238.094330
41.051750	249.004364	232.276917
41.104179	253.124237	238.189697
41.156608	251.007080	235.004425
41.209037	253.887177	235.099792
41.261466	250.320435	241.012573
41.313894	255.393982	241.851807
41.366323	261.058807	247.840881
41.418752	256.309509	242.595673
41.471181	258.350372	240.650177
41.523610	255.451202	241.260529
41.576038	250.720978	239.696503
41.628467	251.235962	234.603882
41.680896	251.884460	234.317780
41.733325	252.876282	236.301422
41.785754	253.009796	242.233276
41.838182	251.522064	234.184265
41.890611	245.914459	233.078003
41.943040	244.579315	226.898193
41.995469	250.778198	236.415863
42.047898	251.140594	237.236023
42.100326	249.824524	227.680206
42.152755	249.099731	230.560303
42.205184	245.170593	229.511261
42.257613	246.505737	236.911774
42.310042	246.505737	234.947205
42.362470	241.069794	227.317810
42.414899	246.982574	226.898193
42.467328	246.086121	225.849152
42.519757	238.666534	225.524902
42.572186	238.819122	219.573975
42.624614	235.385895	224.399567
42.677043	237.903595	220.451355
42.729472	238.304138	219.573975
42.781901	238.780975	220.699310
42.834330	235.748291	222.282410
42.886758	231.971741	220.413208
42.939187	230.960846	219.249725
42.991616	234.794617	219.821930
43.044045	240.688324	221.843719
43.096474	239.295959	220.260620
43.148902	237.865448	227.108002
43.201331	244.197845	228.176117
43.253760	241.565704	230.693817
43.306189	248.775482	230.789185
43.358618	245.513916	231.037140
43.411046	246.486664	233.097076
43.463475	246.009827	226.554871
43.515904	241.565704	229.721069
43.568333	242.233276	230.579376
43.620762	247.192383	227.851868
43.673190	263.919830	246.047974
43.725619	274.677277	254.001617
43.778048	277.252197	258.998871
43.830477	269.432068	249.519348
43.882906	264.854431	248.317719
43.935334	259.456635	240.230560
43.987763	262.050629	242.633820
44.040192	263.233185	245.037079
44.092621	263.729095	247.592926
44.145050	268.993378	254.325867
44.197478	260.734558	249.691010
44.249907	260.772705	247.421265
44.302336	255.413055	245.418549
44.354765	256.977081	237.255096
44.407194	251.369476	234.451294
44.459622	247.039795	235.500336
44.512051	251.712799	237.617493
44.564480	251.808167	239.334106
44.616909	245.285034	238.418579
44.669338	245.704651	233.573914
44.721766	238.819122	228.576660
44.774195	240.516663	222.606659
44.826624	231.056213	219.726562
44.879053	233.497620	217.914581
44.931482	230.007172	216.903687
44.983910	234.508514	218.219757
45.036339	237.045288	220.489502
45.088768	237.941742	224.876404
45.141197	239.620209	219.287872
45.193626	231.685638	219.497681
45.246054	238.437653	223.026276
45.298483	240.993500	228.099823
45.350912	238.456726	225.982666
45.403341	237.865448	223.236084
45.455770	238.018036	226.879120
45.508198	242.557526	225.181580
45.560627	239.753723	226.554871
45.613056	243.225098	225.505829
45.665485	242.862701	229.072571
45.717914	247.249603	230.789185
45.770342	241.413116	233.211517
45.822771	240.001678	227.508545
45.875200	246.391296	230.083466
45.927629	242.633820	226.478577
45.980058	241.889954	228.576660
46.032486	244.064331	228.195190
46.084915	247.554779	233.573914
46.137344	252.246857	236.492157
46.189773	246.810913	232.601166
46.242202	244.750977	231.227875
46.294630	235.595703	224.475861
46.347059	237.941742	225.162506
46.399488	236.644745	225.982666
46.451917	237.998962	224.761963
46.504346	244.598389	224.819183
46.556774	242.214203	227.165222
46.609203	248.718262	230.560303
46.661632	244.808197	230.216980
46.714061	247.726440	235.652924
46.766490	246.467590	232.563019
46.818918	257.396698	238.780975
46.871347	256.385803	243.759155
46.923776	258.979797	242.404938
46.976205	255.355835	241.298676
47.028634	259.761810	238.857269
47.081062	252.113342	235.042572
47.133491	250.759125	233.821869
47.185920	252.895355	237.560272
47.238349	246.219635	228.328705
47.290778	244.503021	232.086182
47.343206	253.620148	238.189697
47.395635	258.502960	239.181519
47.448064	255.355835	241.012573
47.500493	254.135132	234.775543
47.552922	250.720978	234.394073
47.605350	250.415802	232.658386
47.657779	250.473022	235.881805
47.710208	244.178772	229.263306
47.762637	241.260529	230.293274
47.815066	242.958069	230.178833
47.867494	245.685577	227.050781
47.919923	241.489410	227.851868
47.972352	243.816376	224.933624
48.024781	246.067047	227.642059
48.077210	241.355896	226.459503
48.129638	234.394073	223.426819
48.182067	231.418610	218.639374
48.234496	236.663818	217.037201
48.286925	233.078003	218.029022
48.339354	232.925415	218.696594
48.391782	231.380463	218.582153
48.444211	234.756470	222.434998
48.496640	235.824585	222.835541
48.549069	237.464905	220.451355
48.601498	238.208771	221.996307
48.653926	240.249634	225.009918
48.706355	243.453979	223.827362
48.758784	241.508484	230.693817
48.811213	246.047974	226.516724
48.863642	247.039795	233.955383
48.916070	245.666504	228.309631
48.968499	243.549347	230.026245
49.020928	243.892670	230.484009
49.073357	241.508484	226.058960
49.125786	242.271423	229.969025
49.178214	236.434937	222.797394
49.230643	242.118835	223.102570
49.283072	246.715546	226.287842
49.335501	247.020721	234.489441
49.387930	251.369476	230.579376
49.440358	246.219635	229.625702
49.492787	244.159698	227.298737
49.545216	246.944427	228.748322
49.597645	246.620178	228.595734
49.650074	246.696472	228.309631
49.702502	247.535706	229.930878
49.754931	247.135162	231.132507
49.807360	252.914429	236.053467
49.859789	259.704590	239.543915
49.912218	262.107849	248.088837
49.964646	265.769958	250.606537
50.017075	264.701843	250.244141
50.069504	271.034241	249.557495
50.121933	270.595551	256.137848
50.174362	264.949799	251.312256
50.226790	255.012512	240.650177
50.279219	252.990723	237.617493
50.331648	252.132416	235.137939
50.384077	251.026154	232.620239
50.436506	247.154236	232.219696
50.488934	251.579285	236.778259
50.541363	250.854492	230.464935
50.593792	247.383118	230.789185
50.646221	247.325897	231.723785
50.698650	256.767273	236.320496
50.751078	246.677399	234.642029
50.803507	255.546570	238.800049
50.855936	254.192352	234.375000
50.908365	247.230530	232.677460
50.960794	249.538422	235.481262
51.013222	246.715546	234.394073
51.065651	246.944427	233.554840
51.118080	245.380402	230.998993
51.170509	240.955353	227.928162
51.222938	240.497589	226.325989
51.275366	242.137909	228.118896
51.327795	240.268707	228.805542
51.380224	243.282318	227.699280
51.432653	238.895416	227.260590
51.485082	245.361328	227.851868
51.537510	247.116089	234.184265
51.589939	247.077942	231.819153
51.642368	249.843597	238.552094
51.694797	251.293182	240.936279
51.747226	250.949860	235.652924
51.799654	249.366760	238.685608
51.852083	253.238678	234.222412
51.904512	247.631073	238.647461
51.956941	249.004364	230.121613
52.009370	245.780945	229.911804
52.061798	243.015289	227.775574
52.114227	242.996216	231.609344
52.166656	241.222382	229.530334
52.219085	241.870880	229.148865
52.271514	245.532990	228.157043
52.323942	241.699219	225.753784
52.376371	247.077942	230.178833
52.428800	239.601135	227.756500
52.481229	239.582062	225.276947
52.533658	239.067078	225.086212
52.586086	237.731934	221.767426
52.638515	239.753723	225.391388
52.690944	240.058899	221.996307
52.743373	236.053467	218.982697
52.795802	235.767365	224.494934
52.848230	238.132477	223.503113
52.900659	240.249634	225.200653
52.953088	238.037109	224.170685
53.005517	236.911774	221.767426
53.057946	235.328674	219.841003
53.110374	236.911774	219.326019
53.162803	242.176056	221.290588
53.215232	239.372253	227.699280
53.267661	238.094330	226.840973
53.320090	241.127014	228.958130
53.372518	245.532990	228.233337
53.424947	238.342285	226.860046
53.477376	239.772797	226.058960
53.529805	238.265991	223.922729
53.582234	240.745544	225.334167
53.634662	237.636566	224.323273
53.687091	241.355896	224.494934
53.739520	236.339569	225.563049
53.791949	243.339539	228.633881
53.844378	241.661072	227.355957
53.896806	239.906311	227.165222
53.949235	243.453979	223.884583
54.001664	243.988037	225.620270
54.054093	235.061646	225.601196
54.106522	235.633850	220.966339
54.158950	236.625671	219.440460
54.211379	231.285095	218.620300
54.263808	237.045288	223.121643
54.316237	236.110687	222.148895
54.368666	237.865448	223.350525
54.421094	238.723755	222.606659
54.473523	238.952637	221.157074
54.525952	239.009857	224.418640
54.578381	240.440369	223.159790
54.630810	237.922668	226.669312
54.683238	238.380432	226.459503
54.735667	239.295959	225.582123
54.788096	239.334106	224.475861
54.840525	242.824554	229.320526
54.892954	240.669250	225.791931
54.945382	241.584778	228.767395
54.997811	240.383148	222.873688
55.050240	242.614746	221.443176
55.102669	238.361359	220.718384
55.155098	237.903595	220.680237
55.207526	240.974426	227.603912
55.259955	239.944458	221.405029
55.312384	239.143372	221.118927
55.364813	232.582092	223.293304
55.417242	241.069794	224.723816
55.469670	246.086121	228.595734
55.522099	241.661072	222.377777
55.574528	240.001678	230.426788
55.626957	241.394043	227.756500
55.679386	243.587494	223.960876
55.731814	241.374969	230.064392
55.784243	242.767334	226.402283
55.836672	244.083405	227.737427
55.889101	245.990753	229.892731
55.941530	245.800018	229.568481
55.993958	242.176056	229.492187
56.046387	244.693756	226.669312
56.098816	243.053436	223.903656
56.151245	245.399475	227.165222
56.203674	244.216919	227.413177
56.256102	242.805481	227.031708
56.308531	242.347717	230.770111
56.360960	240.859985	228.462219
56.413389	242.156982	226.974487
56.465818	238.609314	224.723816
56.518246	238.895416	225.582123
56.570675	242.309570	228.767395
56.623104	243.492126	224.876404
56.675533	240.097046	228.328705
56.727962	240.497589	227.527618
56.780390	245.571136	230.007172
56.832819	241.470337	226.058960
56.885248	239.009857	226.345062
56.937677	246.524811	228.252411
56.990106	241.718292	231.494904
57.042534	239.200592	224.342346
57.094963	238.609314	226.421356
57.147392	239.753723	225.467682
57.199821	238.971710	223.674774
57.252250	238.170624	227.775574
57.304678	239.448547	224.781036
57.357107	239.105225	224.800110
57.409536	239.429474	227.489471
57.461965	242.061615	227.108002
57.514394	243.377686	223.884583
57.566822	242.824554	226.306915
57.619251	237.579346	224.399567
57.671680	239.295959	227.241516
57.724109	239.200592	224.781036
57.776538	242.900848	224.628448
57.828966	239.276886	223.751068
57.881395	238.094330	221.633911
57.933824	241.374969	228.404999
57.986253	239.009857	220.832825
58.038682	237.522125	226.020813
58.091110	241.565704	227.508545
58.143539	239.753723	225.391388
58.195968	238.113403	221.824646
58.248397	242.443085	226.421356
58.300826	242.462158	228.328705
58.353254	242.900848	230.998993
58.405683	246.143341	223.731995
58.458112	245.018005	231.876373
58.510541	244.998932	225.353241
58.562970	240.840912	228.500366
58.615398	243.740082	229.110718
58.667827	239.810944	231.990814
58.720256	244.274139	229.396820
58.772685	249.156952	229.091644
58.825114	242.214203	232.181549
58.877542	245.532990	230.503082
58.929971	240.325928	230.083466
58.982400	250.034332	231.285095
59.034829	244.865417	231.533051
59.087258	250.244141	237.236023
59.139686	245.876312	231.132507
59.192115	247.764587	231.819153
59.244544	252.037048	234.661102
59.296973	243.244171	225.543976
59.349402	241.298676	231.323242
59.401830	242.652893	228.996277
59.454259	245.418549	227.909088
59.506688	239.677429	225.143433
59.559117	241.088867	222.492218
59.611546	241.203308	227.527618
59.663974	237.445831	223.484039
59.716403	242.061615	229.206085
59.768832	241.928101	226.516724
59.821261	238.361359	227.031708
59.873690	235.538483	223.617554
59.926118	237.808228	223.789215
59.978547	238.132477	224.628448
